Archivo de aceleraci�n parte de la Red Nacional de Aceler�grafos (RENAC) Ecuador

Evento: 201604162358
Fecha del evento UTM (aammdd):                  2016    4   16
Hora del registro UTM (hhmmss): 23   58 45,00
Estaci�n:                                      APED
Componente:                                        N
Frecuencia de muestreo (Hz):            1,000000e+02
Unidades: cm/s^2
_____________________________________________
387,7261 565,8752 -507,1472 -409,5527 -795,6786
362,9873 488,7988 -701,2065 -531,1613 207,7471
580,8469 12,1934 -415,5704 -757,9873 220,2062
-491,5545 -332,7266 -517,5109 -293,2762 -426,8579
-773,2026 -59,7009 110,5417 -792,0463 -83,3211
347,8193 -43,5912 -318,1557 -290,8074 -5,8047
350,0847 -259,5732 62,8945 41,6402 -392,404
68,3619 172,3639 -484,4993 51,4106 235,6092
-391,5563 -164,9194 461,2764 675,2755 22,4809
230,5173 -500,2807 722,254 247,5548 -280,3405
321,3929 134,4087 236,0454 216,9623 560,1566
769,4717 -392,0012 -527,7187 346,5422 41,0721
35,8495 -700,0799 -296,5952 234,4856 647,2766
-735,4136 480,3985 -311,7414 -238,1941 261,6621
-200,8525 -187,809 -510,4066 117,9748 -559,2329
-141,4875 599,5193 515,9962 -551,5169 9,8388
-583,5409 -543,995 -373,1557 -365,8953 -142,1101
-589,862 719,7632 -630,1938 -536,2954 -429,0651
-704,909 322,2253 577,7662 708,8288 665,5387
-550,5727 -778,2483 511,4519 -574,1358 -15,6713
-725,8163 358,2859 -716,5656 64,4718 -574,6913
-545,9414 -493,3898 -696,2038 -287,0479 672,2797
-332,4427 435,9269 684,0373 182,3646 547,092
-385,8809 -264,7843 337,316 547,8811 514,0269
-409,6395 611,6035 198,8719 794,1145 -366,2966
-578,8257 61,8595 -98,2008 -252,0716 438,1203
-563,4187 -718,6063 -94,8694 300,0727 -439,1921
116,7551 782,1416 165,4506 -736,86 717,3236
-126,4285 -699,3765 -369,1433 673,647 -795,9943
-401,0701 -588,7455 -717,7623 -493,6859 -461,3302
190,0729 -480,9405 -4,8661 -132,4444 -221,9908
-73,162 442,2554 770,0959 246,1343 139,4715
536,5142 -343,0823 -455,2758 -779,5067 321,9234
220,3578 483,3257 40,3413 -149,0964 89,3645
-211,6051 62,839 52,9174 -222,174 -715,0542
-210,3895 436,0035 -170,04 117,9438 656,3558
408,0247 753,4215 113,8464 248,5973 689,9719
-168,7434 74,861 784,1924 -323,4296 417,0468
-512,3564 498,188 206,6314 -567,965 135,3399
-626,7976 313,7472 751,7818 725,6396 -441,2762
-387,7681 -195,1465 412,4729 371,7506 585,9101
660,2941 452,2134 -513,8437 617,5893 310,9265
111,6814 -10,5098 -788,6637 650,903 560,7048
-718,3912 274,0879 470,0301 515,2735 -210,1105
-737,3608 229,1703 510,3897 431,478 314,3073
-194,281 -761,2079 42,0776 -19,7232 -646,0515
-218,756 -600,5752 659,1444 -677,1374 629,0073
-290,7473 -635,3171 -701,8415 -398,7738 -146,7821
573,1158 -414,2323 -762,2918 -252,5396 164,3578
-275,7062 -687,0963 -311,1954 606,5782 -500,2816
-326,9656 789,4223 530,5485 110,6034 -581,388
-705,3098 627,7731 -595,6919 -36,5534 -686,6148
462,4252 388,0991 149,1246 173,9228 48,5027
214,4243 677,3095 204,2908 -129,491 504,5338
-518,0254 721,7649 -407,4907 70,1455 -726,7699
-70,8227 -21,5882 19,887 -138,9899 256,2733
70,8487 -26,9943 571,5224 6,9117 -634,2872
63,0431 -714,7397 673,572 -119,421 645,6229
731,0482 771,5819 236,6972 434,2805 573,9331
-407,5038 478,0622 -116,173 71,6216 128,9376
770,2834 430,3754 200,4985 110,1056 334,7364
291,2023 449,904 27,4685 -289,735 380,0697
-508,413 -740,699 744,23 17,1056 5,3411
110,8393 -254,0128 -674,8911 508,0292 -744,5198
-762,1129 -274,9342 92,9387 385,4945 509,1886
-708,0435 -399,5135 577,3706 -271,7619 56,2395
54,5609 115,4259 -542,1158 736,4634 504,9094
301,7774 74,2031 337,9031 -645,3916 296,4145
-195,1344 774,2365 175,6088 555,9221 345,9187
404,1944 785,0465 575,8222 -90,4023 -604,0749
-194,6031 -287,0812 -751,1162 -154,0682 558,236
655,8551 585,448 -6,9197 -676,5031 -645,0022
-412,5669 219,8416 -330,0251 -125,2265 212,6843
194,0646 -236,9362 -389,8999 -640,3766 -186,4886
-143,2498 -275,098 -768,9016 -724,8153 763,533
488,3033 207,1184 -86,7519 -417,3611 -152,4438
734,5714 -692,8743 471,5278 -442,2927 -494,7793
721,4672 431,0673 510,1666 157,3338 -792,1902
-71,9409 68,6766 520,7828 171,2592 -566,2544
-752,8605 63,2256 399,4584 -768,9279 773,5368
279,4595 93,1287 476,7185 204,6765 -666,5725
726,6915 -770,1678 12,2133 -312,2926 675,5186
-265,0631 111,5011 245,6183 -458,9445 355,6209
-497,25 522,945 -528,4037 755,1213 -423,0738
451,2084 286,2713 23,1845 -115,8863 -493,4901
-547,1549 -700,7767 -319,3443 677,5131 795,4227
751,279 -195,7626 -475,6972 -573,9792 -193,4938
642,4301 381,503 -790,0061 -275,42 -663,5794
15,3111 -603,3346 -398,3831 -491,7237 591,312
789,3588 495,1774 -591,027 731,8519 -299,6466
424,2054 262,0145 -507,841 -420,344 -735,7919
-520,7736 492,4852 181,197 731,685 -321,9246
247,0706 222,2274 183,6755 557,9715 181,6151
294,968 109,7745 -466,4788 341,2418 -637,6539
187,7968 116,0164 -783,0861 536,2407 -34,0779
179,3577 -598,9662 785,0917 23,0571 -188,7066
-160,5029 -511,7131 86,9252 -290,5761 -656,7632
340,0301 246,8763 -431,7908 -676,5278 408,5387
688,2777 -363,5188 489,1129 689,944 497,4292
578,7624 -66,6706 -56,4699 366,7271 -765,9727
686,7741 69,7321 144,164 249,1747 -283,3114
349,4687 653,8429 412,5335 -85,9537 -264,8338
-731,5017 392,0149 -151,2255 509,5337 -660,8915
532,4078 57,1605 -136,6842 572,0267 281,453
674,8586 162,8045 -473,3009 -163,8655 -185,9043
660,4843 -535,5135 -555,3412 -380,0295 -392,6762
253,1849 -700,9149 300,8679 -383,5654 789,37
762,9039 -247,385 597,1238 768,475 377,7741
536,3809 554,8952 65,5526 -40,4974 373,061
727,3952 686,2572 -299,3746 -732,5005 780,6353
-560,4489 519,9354 -412,9176 262,3329 -533,0771
-254,8495 -570,0325 128,3984 63,501 151,0899
-441,0078 -196,3149 -500,8926 141,703 389,2695
367,4704 85,3618 -731,887 -183,6178 -234,4049
490,1501 337,5607 -560,5609 61,787 -71,2845
684,5759 -505,3757 350,438 703,9608 671,1195
506,7201 352,7604 463,1569 -443,3215 61,3692
783,8979 -68,0827 772,75 464,0489 -230,6155
74,4996 120,8336 -15,2995 -548,0527 -72,1016
797,1461 -640,5656 -424,8571 621,2531 -403,6691
394,485 338,5267 583,2833 724,2007 -721,5009
-522,3156 783,3271 545,8723 735,7778 -646,4723
-768,1952 313,9382 -47,7006 -502,9231 -564,2061
769,5294 -360,5482 -553,2917 553,5486 622,7589
113,1744 449,4803 -705,1816 96,3789 -209,8025
81,0696 222,2574 108,0552 443,1862 -725,4937
606,7616 -8,9292 -785,3047 -524,3413 140,3705
-717,2123 441,6321 484,1441 -191,2081 702,3846
-281,9203 -338,8652 784,9112 125,225 406,9362
-229,9316 572,0978 -280,8446 -583,3217 -530,0566
-695,7944 674,9016 -135,5988 646,1631 -331,0955
-652,3959 482,2675 490,5147 758,4101 -375,5861
427,3161 253,7405 168,3487 684,4291 -268,6977
-104,0797 651,5357 -467,4752 -604,4124 416,9181
-373,8809 -267,5316 -724,8872 -455,0344 -49,5706
784,2696 -244,4811 413,1021 -663,897 -682,4783
11,6434 -710,2381 -44,5249 -592,3767 694,3224
112,9241 -77,7277 -596,4134 -298,838 -755,7256
-619,9781 -146,5845 -148,434 -476,9437 -728,9853
-590,4329 300,2019 529,6948 -501,091 -425,7485
-295,0125 381,1516 -128,3089 -518,5721 536,6194
-97,7504 -32,0689 234,6424 494,4426 -518,1837
666,0642 -247,6217 -548,4177 52,898 -570,0242
-602,6134 366,9695 -29,3413 63,2021 -526,5622
196,4623 -726,2449 300,4604 -756,3959 317,2208
-71,4776 606,6408 115,9276 -77,2248 449,5554
-503,8877 -325,1734 -85,1625 717,3268 398,0833
360,8937 -626,5665 689,5362 -319,8341 95,8359
255,7439 725,3498 277,1991 -710,17 -452,8763
-388,4585 374,9789 -427,3864 677,8718 -400,3122
-382,88 777,2071 161,748 -619,2744 398,1797
-788,0988 491,5583 -474,1481 -721,9654 -46,0298
-591,4038 -763,4219 -136,5268 -265,5068 -262,7463
648,77 661,1467 -658,8118 -27,6813 -66,0091
264,1121 238,0953 -186,7666 277,3884 637,8377
-64,6614 660,7303 367,4114 -47,1924 -796,9591
536,3451 498,5879 353,1585 -4,0828 -645,5845
388,9875 -445,9946 596,3639 530,5635 -510,5045
-621,3303 676,2429 738,7585 646,6705 -399,5588
772,0017 -470,7093 232,693 745,329 -318,988
-137,5735 696,2621 625,3285 725,6235 407,605
-583,5924 66,3144 46,9801 -11,6972 314,2812
-198,4813 -289,6089 157,9256 -485,718 -535,1411
-33,4556 -458,076 -760,2765 -303,6385 614,3736
431,385 -262,123 -338,4918 427,1679 237,8508
-552,8786 428,2757 -652,9108 -622,5988 165,397
-147,2225 -607,9805 469,4029 -602,3627 36,7441
-574,5092 764,4279 495,6313 438,7655 -276,763
554,7822 -377,4371 281,9526 7,3049 332,1344
705,676 -525,046 -52,2758 -417,7594 721,0649
-268,7522 -443,8784 180,3584 164,7724 541,0092
713,0075 293,2725 344,8351 274,8477 -482,2024
66,1592 225,4895 -266,6858 -318,7844 560,3955
584,8335 772,3104 356,6991 13,8353 334,4988
-284,8558 145,6185 403,7709 -142,6369 -161,4201
-211,813 -222,0954 568,1127 -80,1699 205,0259
-24,1405 -304,9386 -446,6483 168,0749 703,7425
309,6168 688,0856 195,3283 -794,7515 -204,8012
76,3015 -551,8825 -760,1547 598,5854 141,4257
655,089 387,0701 31,3748 271,6262 650,4968
355,4707 -651,8509 237,2012 390,6883 -239,9634
-69,2761 352,8575 403,059 -463,1253 315,5917
724,2213 -70,448 -190,3057 517,5075 143,0939
796,305 -173,5192 690,0334 -112,5304 709,3282
-778,863 -283,2831 -726,8555 -182,8308 -584,7858
455,7711 657,3801 64,0695 632,79 122,0603
-58,6215 143,6745 -718,2116 663,2902 423,0188
-285,4049 -327,7264 -673,4258 -61,033 -51,5887
-150,7728 -374,2009 -409,4065 778,6287 -706,9553
-145,4273 186,4693 -379,914 -136,6706 -190,1766
292,5768 331,3779 382,1291 635,9191 237,0992
-787,6468 518,6203 160,2526 134,3604 -385,3959
784,6013 -365,2674 -59,4699 331,1255 38,9291
-733,7736 735,255 -88,8832 334,72 665,9845
410,1985 413,221 626,4847 753,4834 468,5363
-690,4724 -54,0677 372,9616 -357,961 -673,707
-180,313 -649,5524 563,8643 212,7855 48,9801
-504,2478 -57,0258 -783,809 -329,3575 331,1767
342,471 697,8169 438,2577 219,0933 -232,4236
-343,0595 -207,7527 766,9026 305,3903 -366,7998
89,4755 410,6364 354,178 -677,3462 -438,2222
668,626 728,3414 423,6049 -94,2364 231,8024
-747,8148 396,6951 -708,1867 325,8048 -346,0132
229,9542 -738,6637 -83,9028 -81,0624 42,6139
90,38 343,6486 -364,5801 393,9744 -294,5533
-339,9882 708,2223 -628,9255 -621,1723 530,4871
-344,3067 664,3477 724,023 229,9668 -398,2382
250,6264 -236,6467 -305,783 45,1538 -397,7677
-75,3834 -795,1135 743,1556 -676,0997 459,9428
300,7549 -40,3724 -307,4928 283,941 -477,3081
382,8665 427,0983 405,249 -657,9869 507,4487
-66,9281 -259,6208 299,4382 306,2031 -225,6584
19,8575 -716,7597 45,2538 -248,2538 -374,246
198,0417 -445,5699 331,797 743,8118 -67,8411
-558,0702 -389,986 -205,4928 -135,4176 -68,2101
750,6245 253,8976 708,2622 -389,9 132,8289
-624,4566 557,2027 632,5044 -769,1803 -637,3824
0,0388 -282,2811 -79,5068 -332,0851 -279,0692
87,5403 -160,8305 95,0193 -781,1953 -442,2704
-241,8107 557,5345 189,3795 -520,5875 -744,1274
80,217 483,352 -526,3915 -506,1759 527,5857
277,2549 -525,7891 -365,0303 -193,2059 423,7529
-8,1275 418,3969 105,5485 -709,1149 -136,6919
502,009 -26,9897 386,3316 361,9086 -45,89
-249,4667 -433,5647 760,6637 688,1401 -457,5152
-22,2153 383,6371 340,3051 295,0895 310,4745
-589,2054 424,0469 -551,3138 -421,8988 495,9706
181,3353 -622,3228 764,5134 63,5572 -254,5835
798,7978 -255,456 680,9667 732,8822 337,4968
703,0174 -728,4325 242,0226 163,4905 -449,003
470,1355 282,4568 441,3962 -682,5039 -513,1275
502,6774 -83,5514 -410,4514 99,8438 474,1942
-605,2447 721,0317 460,7812 -148,6117 51,2815
-784,7228 573,2791 310,9024 691,5847 -229,6462
551,4715 -669,7398 -760,9818 28,003 525,4014
-603,1415 130,523 499,0654 378,8117 -443,2071
-292,2282 587,1597 602,0305 -509,7077 657,4281
528,1289 -793,7583 578,0592 725,4259 764,8777
582,9117 -384,1756 -240,2323 155,9864 -227,1956
-622,6117 509,9866 215,3434 -74,8192 -417,2724
-500,2472 -773,7282 684,4093 -182,0698 491,3036
687,8584 530,8079 -178,8327 484,5091 247,5006
769,8618 156,5303 -708,0762 382,4312 -240,5785
122,9536 -730,7341 -798,6058 -776,5272 351,7111
108,3418 -627,519 -384,6561 153,6744 -771,1016
784,461 -47,2901 402,7328 753,0898 -156,6946
754,8504 -538,3436 729,2456 -792,8807 -160,4411
570,3854 267,0267 697,2348 -390,9997 -4,8393
-488,6212 129,4977 763,4319 -539,4186 -221,5283
498,4375 796,0944 591,8388 -42,6863 385,3587
507,6 664,4247 -753,5539 712,5238 -154,7389
-194,5158 -737,2165 369,5978 -284,4874 44,51
675,7338 436,6107 -629,5975 -650,925 -544,6744
-762,425 -790,9794 62,6931 463,76 -552,9762
67,2523 -439,6684 798,3289 -553,2148 -64,5521
574,642 -649,7967 182,3398 -87,0376 410,6119
-664,2024 -434,6706 553,5359 -692,5472 83,2092
-712,2359 132,3519 128,467 -569,5755 622,9728
700,1325 -28,5182 -245,8119 366,9605 199,4463
-152,7582 373,0464 70,1021 492,7978 -129,8678
758,3758 428,7781 202,5491 -153,8354 275,0203
-466,9445 -565,1787 561,9197 613,8449 45,6343
-424,7257 -737,9424 303,2665 113,9052 476,7202
-744,4193 433,1472 -713,7604 -530,1425 -714,5192
788,9471 -417,814 389,4923 -400,8301 704,2363
-366,7054 98,8093 -498,8494 -406,1787 -264,0494
184,2472 -160,7229 670,3697 560,1735 629,5896
-762,2992 -580,3109 234,3334 75,0101 440,517
526,154 741,0248 8,0148 389,8967 -491,3317
-408,6158 -176,8243 -69,6021 -346,2859 -176,5777
-10,4344 323,1482 -623,6462 -284,3553 426,5458
-437,9132 317,777 386,5063 103,2762 -733,1961
363,513 -774,2025 -656,28 -198,9592 76,7259
-63,9785 714,0907 49,4407 531,6181 -587,5535
125,7281 482,4743 41,5043 203,9494 518,2793
-748,9697 -260,5424 381,5341 -421,3671 216,1158
-597,8428 -686,7404 41,165 576,1437 -367,7558
-235,8387 -228,5056 -205,2409 284,0664 129,32
-381,9571 -793,9931 -774,7844 -103,0721 178,0178
788,9285 -43,2551 432,0163 -435,3233 690,488
580,3103 514,4108 478,5797 -616,7192 133,8673
148,3998 490,8541 -28,7479 -406,822 -303,214
247,7716 -241,7294 -45,9606 269,7416 -538,7141
-751,3273 -777,8107 312,2444 -339,7536 -424,1645
-216,2999 -611,9937 406,0534 288,22 226,6078
-21,8211 -661,0661 201,5635 -688,1158 767,1923
-357,925 -225,5892 101,6307 237,2861 9,7066
651,7946 164,5281 235,3936 556,1532 400,5201
-408,9839 549,1392 -394,8679 -729,7167 775,0792
-350,7166 27,9766 -229,2713 -46,7162 207,6194
788,208 -423,3487 247,5644 207,1164 -488,7073
-266,3081 -593,3813 -680,6139 226,5382 -271,8764
-643,3444 249,965 89,1495 -386,4514 -152,3555
-44,5546 -89,8228 781,0971 402,5388 -212,0949
149,778 356,8902 158,6373 -787,8168 300,6848
289,9657 275,2282 -90,7017 -288,0425 222,2664
-193,0695 -152,929 216,8264 340,2651 -122,2382
-460,4662 315,5897 232,3102 565,0856 80,2001
688,7745 732,91 183,1961 -154,9284 780,5428
-232,9981 249,7275 481,6874 273,0416 723,7593
577,6455 793,196 -714,5987 340,2262 258,6125
-231,4537 -354,143 335,3269 335,9248 -634,8668
-158,8959 -528,4141 676,5983 239,2427 449,9564
-381,4458 618,1012 -547,0219 640,748 599,7492
-583,3472 659,183 38,7549 -289,0542 -576,5175
-72,7492 -571,292 478,6872 -317,5544 459,4476
-767,0722 -710,3904 590,0618 -194,4553 -763,2423
531,3743 631,4074 -45,1913 -438,6347 -143,4014
719,537 -580,2081 -743,2296 -789,4611 113,0
-515,6241 510,1745 120,7417 124,6324 159,7616
713,3423 -210,8643 620,8914 -239,2154 -213,3479
-229,469 372,9777 380,4243 -677,1557 483,6673
-207,718 -443,8776 -279,1864 5,9719 -639,0124
733,1932 543,9262 535,4147 148,7992 242,4124
-736,6279 -789,2223 -334,8937 -421,2303 -245,3533
349,9532 -729,8472 -628,7059 521,6993 -626,7495
-106,4826 717,6596 162,548 373,0939 -780,8692
733,2334 73,7081 170,3934 56,827 -57,7802
593,0247 -161,6181 185,5285 -139,4047 790,6227
551,1224 558,529 174,4084 423,6483 -750,0802
-23,1678 -346,284 313,0732 101,6927 203,7822
251,5082 -642,1969 389,2487 663,1832 -136,2261
-330,0852 20,3779 -42,5363 -499,3337 -490,4298
630,5128 -592,094 -305,7255 272,1429 35,2083
63,6791 263,2919 676,5614 -752,932 407,4288
96,4493 -607,3872 -549,9463 -257,8972 -501,3471
443,9201 501,263 447,0234 -41,1101 -645,3167
-561,7824 -102,0814 -204,2332 210,7199 -595,6559
583,4491 43,269 540,6448 -698,9475 -585,605
655,0468 -407,8212 -364,3727 -335,2377 -467,8187
95,9751 550,5727 301,2544 100,5016 -204,3195
121,0776 333,6605 -644,429 674,6468 -528,183
461,0582 -499,8103 -420,9068 -340,5408 697,5395
-193,0944 485,1926 -618,2587 304,2317 90,4258
728,1482 -765,5989 -720,2904 428,3549 -776,9656
340,3357 -65,7689 -43,1313 -94,4326 -133,5024
513,2458 527,0864 687,359 -639,2134 355,5619
-638,6768 172,9367 550,4179 -236,6698 -563,9538
144,3017 144,8508 -645,2918 -76,1469 202,4819
725,8713 458,7562 170,2259 -247,3656 234,6776
639,0849 497,9158 614,4788 -201,9537 117,5832
302,2946 -55,6763 -583,1367 -595,2037 129,4263
589,5659 -330,0667 -378,9957 291,7234 697,9423
-222,5587 19,8584 13,2764 -403,3375 -123,4013
407,5474 681,6888 786,5023 438,8532 -500,3824
416,468 -602,7708 -90,8846 -125,9224 -103,126
-771,5869 -443,0816 21,2277 -449,5843 482,6417
-702,0628 -306,1352 -599,9098 484,2552 436,2081
193,3029 99,8615 -456,2346 -792,098 -343,4659
-340,3301 -615,3438 -34,9215 465,7016 56,6534
690,0714 -13,8684 -559,925 88,0678 14,4323
414,7713 440,7269 161,5774 424,4631 273,4699
730,2354 2,4953 -18,0677 -726,2155 -572,0635
294,0606 665,3452 678,1867 366,0023 98,8706
262,5858 -745,8457 112,8436 -763,2582 417,482
-509,8333 -792,2177 290,12 -205,4174 -696,828
-765,0679 -136,0128 351,7569 15,4453 280,0154
459,2075 419,7568 669,6875 382,4425 347,4255
-259,2316 384,0316 10,3875 -616,7956 -285,1025
-585,5924 -139,3115 -565,0723 -179,2734 648,9491
781,9318 -185,3188 291,3846 -653,5966 -722,5294
725,9341 454,919 759,5175 241,9646 566,6529
668,6888 321,7507 676,5415 -164,297 166,7202
100,321 116,6243 58,9749 371,5402 86,0589
368,1643 -177,6779 593,7085 37,2 -348,8664
364,1356 262,3681 426,2579 -597,1348 -565,194
-108,383 228,7833 191,5088 437,1165 -536,3702
70,2559 -560,9942 594,9128 -634,6914 715,7428
620,7698 437,7397 796,1578 -243,1766 497,5577
23,9744 75,3915 -455,2586 159,1565 163,4957
677,0689 -233,0363 761,412 704,3134 641,6765
-401,636 135,8665 581,4424 650,1903 -669,8366
-200,298 172,5347 373,9615 -722,9741 57,652
-322,8907 440,7656 -462,1589 -456,2002 -415,3713
395,1785 264,9554 -330,7244 -332,2407 70,7911
767,8717 363,5675 -689,3768 -663,3381 -623,4077
761,5267 -605,126 -583,1377 14,775 -16,9177
28,4641 118,3323 88,9341 277,9843 291,4152
523,1483 178,5597 -766,2386 -81,2759 -44,9988
-538,1318 15,4493 -186,7458 -756,8635 -162,787
-197,414 -141,0434 365,1198 -576,1325 -256,636
-367,7271 593,0494 541,8961 -110,1511 577,2626
163,7501 26,8585 -98,3543 -514,3355 -556,6157
634,9689 -360,1843 -290,8212 393,191 -538,453
-755,0276 -762,411 -49,8423 -145,617 -160,8767
-746,3824 486,1881 -762,5323 291,2443 416,6444
-768,9226 -395,1398 -205,9065 -607,2208 -780,6
135,8309 730,2104 -250,4363 356,175 312,2098
434,0514 -565,5928 467,976 -743,4618 -220,6925
544,3 -563,1702 718,8861 734,4203 -566,0881
199,8218 -687,6004 -611,1803 -739,8276 333,7975
718,6124 123,6548 -408,5044 10,9524 -169,8902
-609,8072 -20,5647 561,7765 -335,9025 529,3704
-143,1521 721,5664 -507,0531 -30,1779 -167,2513
183,8931 582,3626 -621,1655 505,0621 345,5806
559,3924 391,2395 -181,3012 -538,5821 55,8183
528,8392 -663,9265 -212,2641 -210,6427 -489,6065
713,3103 287,1811 78,4917 -106,1096 26,2827
722,5349 170,6342 579,4517 -681,0115 -39,6912
-253,3967 760,3171 623,2096 -515,2653 -400,8451
240,4841 436,4248 -691,1343 768,6817 -693,7628
-269,5665 -466,1916 158,1672 740,6767 614,5496
410,9042 617,4613 459,8656 78,5399 268,1453
-56,6946 -482,539 -622,1202 -215,2798 790,7997
456,8293 651,8007 158,8515 -791,2567 23,8956
-452,6837 635,8262 -14,9883 319,2355 91,1819
-625,6438 -485,6628 -173,2134 -459,3278 -484,6614
-315,7413 783,988 284,5008 493,2685 -407,2026
-57,5614 758,837 -158,0058 652,2882 690,0939
-192,5828 -205,5765 336,7356 -517,3757 -230,0454
-50,7058 -131,1255 417,9985 -680,2687 -158,0256
-280,556 464,496 594,6406 -8,0635 -13,7443
735,3632 -531,1024 346,9347 148,5354 -580,0068
-719,919 507,9711 -339,9579 201,0913 486,9381
-676,5406 205,3476 -100,278 -231,7563 -658,0516
-34,9623 184,9505 628,1036 787,2846 -679,0217
-631,724 509,8462 -618,2419 -250,8594 -144,8441
-17,7232 -345,8847 -354,7023 -309,7666 255,6958
603,8936 -101,936 136,2162 87,2042 -514,5824
-599,8612 -790,2313 270,6972 -277,9894 -91,4712
-362,0707 -136,143 328,0705 -715,1245 -674,7888
7,15 -648,5004 -61,2956 18,7968 -512,7839
-68,6632 -556,3183 321,3086 305,4054 765,8518
491,9437 -103,2967 513,4741 659,7791 -482,8449
-732,4459 348,543 -80,3747 504,3214 324,5306
526,9085 -329,1562 -407,7369 565,1446 -598,627
-69,4602 516,5911 -203,2398 39,1758 -450,7717
-22,2357 20,9264 589,6891 -170,1529 725,5328
-393,8854 -312,7533 176,7683 603,9707 742,5682
635,6594 719,9041 574,9339 -732,0096 123,0268
-346,8932 -369,2848 493,737 522,434 -304,4324
-153,0801 -134,187 -176,926 102,3908 -465,5931
552,4276 -365,4571 173,1795 320,445 87,7477
-85,827 -49,1937 -445,8312 -457,3414 -509,8433
631,1844 725,2012 -547,4175 346,5107 663,2626
390,6785 -762,2885 694,1583 360,1681 275,0237
-127,6025 -428,4093 -693,0372 428,418 -596,7764
-18,7852 -26,2413 179,8575 -120,2425 -479,9397
-497,8684 590,1042 174,2508 589,2068 16,6964
-310,0396 -288,1913 -415,363 -711,3174 549,2354
-432,3516 546,357 679,9306 673,5328 372,4065
199,7792 -674,8956 181,4872 163,4439 751,8698
265,8446 -253,5398 735,0821 -262,1315 -421,4498
242,8255 546,2991 465,5004 -653,1325 332,1676
-377,0289 0,553 -474,5442 -391,3594 117,114
-415,7228 306,5682 -693,6831 -542,3785 784,0758
-19,1786 252,2765 411,0997 248,6602 -463,6391
291,7965 -407,8979 -358,2106 -632,5813 441,0495
162,1979 303,2303 -730,5523 296,5344 529,4338
-388,7553 -634,2373 -259,7938 667,443 410,9131
-28,5361 714,6527 -484,2727 523,3728 273,8653
509,0147 574,4205 246,8722 -607,7203 -452,3672
43,9569 -122,0004 -105,083 405,0286 -5,0896
636,4966 195,1682 646,7112 -745,5384 -123,6096
699,9381 476,1006 744,2855 -771,7822 616,6965
403,1117 -556,1044 208,6603 80,8226 428,7014
-347,9088 -763,8428 678,5448 -538,6404 540,1498
-354,9737 657,0977 446,6706 -779,4681 177,305
431,44 435,4333 403,487 117,592 -288,6945
704,1276 111,3762 -163,1849 172,4821 -90,0207
675,4318 -211,2736 158,2187 -402,6163 369,1063
203,6471 160,9405 553,5953 -597,1546 134,7091
-409,0059 -326,8828 172,3509 -279,0863 287,6849
-347,3913 381,7566 -711,2315 466,6175 -296,8092
183,9944 -176,6723 -380,4709 -696,0616 45,8652
-462,7379 244,4849 656,3165 709,2863 134,43
-753,398 251,0886 281,0937 -121,305 -323,9244
-504,935 -469,8004 504,6091 738,1635 -583,4049
285,9509 -653,0769 706,8196 -787,4146 276,59
373,5361 131,0869 447,9858 -204,1437 -256,8262
-150,4296 38,2778 105,8719 547,8781 -0,2791
54,981 -189,8388 -638,4667 300,2794 587,2686
335,6155 216,6037 -309,5907 -543,3915 265,287
525,4284 788,3467 136,3399 -739,4445 -560,4801
-403,6508 469,52 496,9469 104,4929 55,7042
-194,3006 317,3275 673,9967 -128,924 188,2324
318,5702 -524,9526 386,9544 -507,1312 -418,3653
-262,0017 279,3804 -448,6745 -77,3855 540,4437
-297,8459 -499,7714 -366,3359 283,5288 -552,5925
-88,4797 -88,3804 -427,1668 334,9539 -237,9481
79,4559 545,5562 480,691 -1,9328 -265,7983
88,7479 -336,679 634,3711 659,088 354,6962
235,7668 -206,769 455,0443 -336,6821 625,9182
-700,5893 -206,1422 -66,7468 -606,4803 -32,1625
707,0747 250,0497 635,2263 -633,4201 -574,1424
787,8505 -449,3055 -347,1944 522,6339 -189,0974
-318,9157 221,7019 452,0921 699,3506 81,6542
360,6242 51,2699 587,5015 281,1938 423,3486
367,1469 233,4243 67,4388 601,4882 -196,152
319,3425 762,3152 16,5127 -453,0521 -209,5687
28,149 333,066 429,6691 -177,4893 136,3461
-145,6126 751,2258 343,8606 216,6393 -289,9659
80,4665 67,3329 55,2884 647,4083 305,4865
109,5272 78,4522 -766,0777 -130,6997 -69,3712
608,379 483,0701 -7,9961 -58,3369 -789,6015
209,7412 -138,5961 -266,1157 719,5878 680,8914
224,0454 -331,9323 142,8089 42,6021 -693,8041
-302,5261 276,8339 688,084 32,8547 267,4806
72,7907 507,9218 -740,1602 -147,5879 -265,3853
-497,6115 44,8083 606,4101 559,0482 -471,0478
478,7081 392,8543 -203,0819 445,9612 34,4275
295,2336 50,1794 10,548 -373,8701 265,2432
311,9402 -751,779 41,6663 -196,2021 -139,8011
310,3806 156,4299 -732,6348 -470,4538 -331,2977
-719,8287 -347,8727 218,7086 501,5823 -96,8794
99,3612 -132,1783 411,9629 342,2729 -342,4187
-33,6891 740,0524 -399,3592 -672,7505 380,995
340,6918 -780,8423 -189,5734 -524,9417 87,3667
64,2976 593,5018 -633,7365 -159,0717 -31,5587
-254,3078 182,1448 -172,77 758,1696 572,0914
-161,404 -377,3425 783,602 755,5403 798,5574
421,4985 -498,0492 138,0865 -404,6674 677,6141
144,5861 -103,4332 128,0919 710,1416 189,7463
713,9586 155,094 -722,2966 -403,9961 373,1728
690,1472 259,275 -722,7681 149,7651 294,3369
206,3336 626,8733 140,28 -497,3092 -415,5308
-486,9246 -705,4997 -453,1031 -457,4232 -411,6136
-429,1425 -15,2126 492,4893 336,343 348,8528
-607,1797 310,8476 -472,2782 132,7985 530,9402
496,7101 -262,0752 69,5118 737,0274 392,0891
204,8616 5,4946 467,0048 -468,5301 -549,4996
-274,8073 -78,7222 732,1796 581,7341 500,3124
-726,0632 -695,857 665,7627 119,3582 661,3933
-50,0532 302,0003 240,9742 -324,3615 514,4634
-277,4393 -435,2256 470,2512 389,84 -661,3264
-202,1596 392,0549 -664,7898 -553,6272 20,5617
140,8639 400,8556 783,7815 54,2837 433,0511
284,0573 -237,1519 -718,0997 485,5683 538,6171
-739,0204 754,483 11,7426 78,3983 761,5421
294,2872 523,6633 -96,7866 -238,5278 93,9526
206,4304 211,6368 592,2046 75,4977 -455,6411
-282,7155 -575,6847 -124,0874 663,5667 316,2391
525,1575 -727,3947 -21,5784 -192,3046 -94,329
-701,3771 262,1447 -158,0644 -423,7786 -461,0323
672,3294 -308,8919 83,052 -454,0761 -27,8766
509,6016 -382,5963 -778,4588 198,3511 -648,2013
-597,0205 316,64 476,8385 381,4687 398,6641
555,0061 330,9287 762,0326 -782,2553 403,1927
82,3433 -435,9022 359,151 -510,0102 220,9798
-683,7055 222,8813 46,6609 -602,6853 292,1381
740,3963 578,1823 -489,5051 -322,2419 340,0881
-326,6222 -127,7314 315,6852 -573,1549 605,3062
156,4873 -442,7994 439,5915 -404,0968 -799,5677
-123,515 -96,9963 423,7839 108,5758 -208,8486
652,045 474,7136 -541,3125 262,2964 321,6291
-208,5199 684,1934 210,4875 80,944 200,7431
351,2235 421,1383 -188,6668 -265,5081 -525,1964
-265,9309 -5,1708 -682,0741 644,972 -638,7155
-190,7678 784,0987 655,6885 322,3646 7,3165
-322,6989 -220,3405 -411,6345 -784,9678 130,3744
-283,7355 -270,6339 141,7428 -382,2864 263,251
-388,8915 703,9498 -94,6092 335,0464 -693,2338
-396,2506 283,6844 604,6095 -339,6492 464,7667
-75,3258 -476,7678 387,8912 -731,9611 -319,4915
-342,4277 677,9609 718,8719 -262,6464 623,2294
702,7568 -441,3627 -513,6064 694,0391 -314,3038
773,4295 237,378 488,7415 26,8074 211,3435
-743,6766 532,955 701,0536 -683,7926 23,6059
455,1289 -528,7618 712,7997 257,3482 -246,162
712,3117 -782,3764 639,3605 -9,0312 225,8767
-83,3685 -306,9898 -439,5285 -493,846 -657,7039
525,3371 455,4797 -607,1446 639,0073 -572,9256
-774,9197 212,1033 -326,4782 -83,8397 -513,7205
-438,7764 -668,1268 -533,6351 458,135 -788,6835
414,9679 204,5064 726,6383 -480,1446 516,4213
-183,0701 -554,1946 -91,6575 -734,52 -62,1345
-784,8777 -785,8933 588,3718 526,4663 -102,5086
-722,4823 -607,3257 282,2095 473,8045 -773,8097
687,8319 143,8906 22,9944 -578,9093 -362,9497
340,446 107,7589 -54,7692 236,3318 -385,2031
-518,3566 -310,5394 133,7966 -313,9542 -496,9509
-670,9029 -718,706 -602,761 -668,1268 484,7966
-414,662 463,6804 177,1828 208,3202 -307,6199
-674,9229 160,488 75,3576 -224,2905 -306,4237
-503,821 625,7294 -682,0147 -751,9093 -48,3996
201,2472 626,2656 -506,8182 -581,3144 -81,3529
186,0048 313,7014 -533,5586 -244,5876 -256,2054
86,691 579,1447 -545,9842 117,7044 -458,7595
416,7908 786,3776 792,7436 -376,073 -791,5247
-396,1125 450,3324 -673,6081 -41,6673 183,2137
-4,2506 -62,6736 284,0434 693,576 753,1922
-593,8645 595,2945 -359,7242 536,3249 -114,9711
93,0058 -241,405 595,3326 354,0514 380,6413
-245,2354 -504,8141 -289,1074 -18,8967 -462,4057
90,3857 286,1386 -29,0573 -571,945 717,5831
596,0765 152,4671 396,0651 266,2193 -162,9378
379,3276 -397,7715 -464,7059 362,5399 -763,1858
-218,1738 -176,6113 -319,7823 -710,9113 735,4501
-239,2025 -268,1073 399,7461 -580,792 403,6694
-620,9029 657,5226 -797,2756 -469,6555 792,5825
230,9515 -355,1203 -721,5572 -799,9493 676,8772
-192,2698 139,3345 658,2056 -617,6506 127,414
588,2283 -557,2229 482,4626 -433,1213 -238,2746
-345,3128 -138,2769 274,683 411,3682 402,9419
35,8243 -188,2178 793,717 179,9307 -540,551
-447,6678 -487,5035 -299,9483 -431,9023 -770,6868
62,0041 -342,6419 650,6659 -145,1903 -788,7506
95,4978 -593,6512 -461,6451 -397,9387 -590,4954
314,7843 -524,5738 -607,873 -192,6202 -794,2672
791,535 -528,8831 -336,8084 629,6782 -430,9897
242,31 219,6775 -458,6248 193,6731 -547,4544
312,7616 722,5715 64,3081 614,6254 399,4893
217,8921 -497,5213 -636,4641 419,7267 234,2198
-457,0392 -150,2379 381,3946 -674,9803 46,7027
543,3085 174,4014 522,3493 -707,5458 -222,7929
-363,4331 -100,5824 12,8471 -751,027 637,4938
-309,6262 -16,3048 -70,5521 591,2452 -317,5624
-342,682 42,8378 200,6366 392,8819 -584,5341
-384,1817 603,5778 -587,1148 447,1317 733,4453
345,6793 -742,4915 482,8264 -232,07 727,0757
677,9809 313,5193 562,3815 513,2047 -48,7785
29,2505 -408,3333 -133,8537 463,4762 580,8092
-28,712 -54,9716 -23,9117 671,2297 -671,814
-293,3378 -192,6173 -32,1884 7,7908 -562,6602
625,6958 -45,3004 165,0325 -710,5827 330,6649
-8,2379 159,2281 518,9398 -695,6994 105,0856
514,1888 113,4689 -258,5393 -534,9698 -545,3054
-733,515 -695,4317 -700,1627 -408,1121 -79,63
-99,5207 708,6646 -255,6441 -266,2069 68,2818
-178,368 402,2813 545,0229 111,9062 724,7154
-278,3538 -776,4519 463,2022 -479,4545 738,2476
624,8212 42,9036 2,0358 -48,8666 -617,5673
-290,7098 -232,8752 769,7337 -148,1923 726,2658
-628,0251 418,87 -604,876 299,5584 -326,6437
367,1659 31,1942 -200,243 653,4664 -420,5066
149,3044 116,5616 -757,0195 -356,8885 -624,4614
229,1389 -794,5517 -548,5396 57,832 -464,3396
-196,6778 -141,1461 767,7709 -314,8905 708,5539
-24,1693 484,8219 -789,2362 777,8447 765,143
-357,9725 -22,7297 -697,7905 -151,6989 572,0527
-195,3282 -242,5286 559,0389 702,5648 -420,0117
-316,4307 -300,8536 337,9879 684,2843 153,1056
769,4872 -92,1943 -5,5438 592,4623 -296,7457
415,4344 -180,6726 -379,2944 -37,9764 263,701
685,0252 490,3123 -61,2685 350,9601 441,4662
-720,3816 -604,4452 -82,6837 -379,3952 -315,7482
-237,5427 -99,1665 266,2782 246,4828 520,9073
614,6181 119,3097 350,764 281,9579 -235,9588
748,6154 -358,2578 -157,0928 558,3926 -270,3894
676,7073 -520,0199 -540,7901 653,19 -635,1321
774,5493 -394,2498 -227,174 -79,5482 -681,9598
728,2105 -245,3712 459,0393 -30,6041 428,6606
-538,1646 -459,6314 8,9201 192,7563 -45,2553
-385,0101 414,951 -290,1559 461,4273 -242,3942
-191,0558 -602,9178 745,4811 159,3339 -780,8821
666,7599 -5,4839 783,6305 -118,2008 448,697
21,7548 289,3634 458,2153 338,8933 704,6738
747,6924 -719,3901 -490,4714 -359,5662 -608,8004
424,7034 536,3937 229,3707 -494,1262 104,894
159,8202 -612,7079 298,8889 762,8366 -401,8682
-163,4041 -362,5823 -482,8584 795,6902 264,7388
-510,3376 -468,0715 -694,322 19,8397 264,156
390,2851 -608,898 -791,6242 512,4355 -344,1222
-462,488 -421,8107 545,2503 -585,932 -391,9598
-266,4662 -211,6163 -599,7769 -435,6135 300,0521
252,8433 108,3996 27,7873 -470,0051 -245,0775
-451,2766 273,7249 -506,8686 150,9343 -570,7422
325,3348 185,5566 483,3765 -568,2146 -738,3662
603,91 386,129 776,2291 270,5486 -554,6156
481,2594 146,1822 621,926 576,7771 -778,4739
-524,8577 761,3914 -450,1979 -369,0402 178,478
-791,6397 -242,4677 -425,537 562,2177 289,1645
-307,982 -465,1314 -19,2064 298,4452 -232,4272
771,2568 -369,5447 700,1351 -325,346 -795,2808
-115,0218 -534,9982 -672,2915 174,1479 -589,2572
-705,2876 496,3494 -672,358 209,4999 -563,3256
-255,4865 -26,0716 -273,0811 -360,9475 640,707
-210,852 216,0977 264,083 -770,5661 -486,5491
-524,9509 355,4999 73,818 -427,8099 -92,7227
549,5808 720,8713 298,728 2,2312 -664,9012
381,6919 -543,8264 -599,3289 266,7488 -500,2484
-706,0715 422,9739 428,122 216,0179 -95,3182
121,6253 -747,164 -117,2779 485,0599 -226,461
306,1867 -567,7017 244,2654 -739,0769 485,943
600,5991 305,98 -568,1774 -779,5494 -326,2877
86,9971 572,9658 -766,895 -320,3952 -689,0644
-481,5602 179,3342 -352,0824 456,7521 356,7407
-314,836 102,5231 -757,576 260,9059 342,6809
-77,9814 -336,0257 -313,8856 -46,6094 -517,4
-587,2172 10,1784 -718,4139 -14,8206 402,6418
-397,4359 -660,3595 -171,6812 725,0829 585,3614
-575,5249 -301,6861 102,0049 -288,8212 -312,517
385,2472 -652,5797 766,5511 745,7616 -466,5619
-709,3659 -87,8597 114,3886 178,209 -113,0534
755,5612 -462,4327 -280,1819 668,3672 -469,2903
570,9198 178,0481 461,1166 -772,4867 -629,4984
-640,986 341,2821 616,1614 128,1917 -261,1583
-36,8863 -400,3624 -692,6912 -280,352 -507,9506
-41,2367 637,2863 -287,3329 -103,9951 -540,0257
-637,1727 314,7506 608,7479 -244,8315 229,6618
57,1948 -121,3189 -7,4002 -372,6224 248,3078
246,9841 554,6494 -293,435 50,2632 688,8643
445,4713 -134,3358 378,0458 650,6491 689,6378
434,0633 -765,0346 -590,8305 -556,8929 107,6758
349,3432 -190,9113 -467,1567 776,5771 535,5076
69,6853 -644,0623 74,871 575,304 -53,3035
-598,6774 318,3314 -772,3004 -24,3756 581,6705
-36,1924 683,3533 -319,5481 -40,178 -701,4713
-476,7432 526,7489 -281,8172 179,5374 699,9766
722,1167 -558,3464 -362,4167 740,0638 -712,4991
-26,0333 -226,3223 62,6841 -84,453 -142,5231
-380,0034 675,1806 652,0994 -386,2609 -690,1303
74,72 -147,2134 -276,9408 768,3677 -728,0837
65,3974 42,3153 -336,8769 278,9511 -337,0598
-680,7179 350,3742 40,2762 -773,461 694,0953
582,5867 774,8025 651,1733 608,2836 460,5241
747,4488 -734,0724 77,2132 -47,7613 -482,3477
-298,9526 -431,593 -498,6239 371,3077 -451,2904
305,9695 -760,7204 34,6873 -186,2754 -276,0036
-226,215 -469,8848 290,6949 767,3478 -695,9489
43,5297 -605,7713 618,1223 -399,0886 -792,665
118,4562 763,2782 -550,064 544,7098 517,8321
120,9063 -583,5785 -75,6524 591,6885 -62,7096
455,1721 -542,0261 -498,5704 -232,8048 -275,5982
635,6254 600,4056 -503,786 -637,7265 -203,8555
384,7448 144,2884 -172,8014 144,1862 152,5095
-197,3167 564,5442 -613,7096 -253,8852 -786,344
-568,0593 357,8125 757,0696 665,4967 655,7114
541,1697 -402,2742 -766,4818 52,1811 -436,2891
-628,8302 -258,6683 233,7971 737,789 746,1474
529,1451 453,8736 -83,8217 104,3481 -223,7244
-377,6041 -510,4456 369,7084 -544,7012 703,8047
793,8553 -440,9627 -226,9279 -310,6443 -156,5267
-764,8257 74,7243 -408,1172 628,1148 683,4531
154,8905 -267,9952 -574,5081 -475,2488 -583,5224
-155,277 113,6491 417,7045 -267,1557 131,9264
288,9947 -443,9852 -604,6425 -172,8754 280,4546
383,3082 -538,6572 -58,3454 59,2678 -645,4564
152,1376 -671,3504 561,7926 -223,2063 -711,892
-130,3077 -636,3599 399,2997 216,5166 446,8105
166,9144 98,8291 65,2281 -455,4065 347,0037
-302,1373 -55,8545 -755,2846 -153,4635 -448,2624
222,4094 466,867 -282,2479 519,579 537,2144
254,9016 -408,942 -168,4548 200,2721 702,4238
-520,6668 464,4709 -407,0696 -589,7194 -308,3665
287,3794 600,6361 -728,1613 -559,1288 215,5376
-189,1365 -718,5813 644,0065 785,3291 569,0993
-656,2291 -645,7224 -209,6748 -795,5715 134,1812
-294,116 -253,5241 416,0009 -164,6287 325,1404
-57,5663 0,5758 30,1164 -372,5189 -258,9872
72,8316 342,9918 303,5668 -225,3192 -214,0635
-720,128 192,6871 -436,1721 -413,6546 -143,0785
-461,5026 -191,7815 -253,3981 -16,8975 354,8062
-9,762 586,7875 -421,8104 -704,4172 332,9331
439,3266 427,5006 -460,5141 468,5298 716,6684
752,9221 -212,8736 -616,0454 -350,7636 220,7955
729,3247 722,5619 535,0641 -672,0532 652,2616
-526,8845 -487,4675 -635,1297 351,3373 558,9379
283,2061 -452,7441 512,5936 778,2018 -408,125
633,2401 -482,1254 -665,5269 -478,2522 -261,7647
269,9204 -351,7945 733,0097 -654,804 -288,9834
-335,5316 -541,8489 -588,8705 -429,872 -680,7689
720,2309 -217,8745 -358,9261 266,6228 -52,6764
696,3596 113,248 -717,3647 -637,8178 -82,9832
102,0945 357,4342 23,975 249,5837 -712,3253
-9,1389 -32,7167 -399,094 205,6705 -781,9893
755,5016 654,885 -450,1769 67,2302 -774,0452
549,6138 687,7962 -757,1966 -232,2835 -527,2779
-674,3043 -763,2232 -433,5459 -185,647 -217,6799
-118,1695 402,2001 676,1045 -556,5025 -602,8483
249,0979 -272,9398 -768,0989 188,4728 247,2267
-448,6021 -368,59 179,4984 -678,5125 697,7877
121,8183 409,7916 264,9952 270,4446 -0,4256
-130,943 -122,4742 35,7033 -532,3733 341,5886
371,1244 785,5117 208,5713 -531,492 257,7312
530,5907 93,0303 618,0164 29,3846 -70,6538
73,524 81,3121 367,4886 168,1928 -298,0555
-782,6835 -415,5542 -428,9757 461,3819 -779,3317
-783,7442 676,704 -568,6262 -700,7541 501,8732
-239,9216 -135,3685 741,3722 685,8644 718,0359
126,7343 106,7517 -508,0707 -291,1996 -674,9606
-184,0092 748,5955 163,6218 -623,8701 -235,6573
125,255 636,0812 102,5267 -233,0897 -515,8627
180,697 -295,6608 -310,9403 -140,4542 326,2721
-194,3939 71,4528 -492,8743 -715,678 -636,6736
-491,6162 -312,8682 748,265 17,1126 766,2687
-633,6944 333,7074 -269,4192 488,2396 -378,7785
626,1991 -264,8771 -338,919 -535,0532 655,8653
367,9241 -792,8972 661,9719 -69,2494 471,8497
-16,8249 -674,2645 -25,5741 690,6591 581,0979
452,7683 -62,9049 -314,2809 641,6371 640,3944
-203,0594 795,5059 479,3649 0,1202 401,9125
-456,4482 -458,4938 354,4647 628,4202 -294,6747
676,2722 799,822 -202,4426 535,5173 462,3502
-317,8383 -741,7241 -380,103 670,8855 -634,581
-275,2679 625,1174 495,538 -692,8582 -672,752
-98,0103 -271,5236 647,0509 -583,5727 141,877
-741,3542 457,2724 399,1394 488,8844 376,952
97,4607 490,9482 -753,102 -48,8141 698,1093
-17,6173 308,9172 648,3473 -187,1738 64,3352
-509,6545 -657,8291 729,6192 -491,1634 -276,4747
738,6092 562,6949 -585,6195 590,7129 161,4534
-373,2349 -94,2034 -321,5949 571,3433 436,8035
-28,2508 82,6409 -264,4474 -432,8741 -7,5862
703,9797 125,9354 -103,0325 -489,8257 572,164
476,5177 639,2441 -381,1486 -50,8371 -462,4358
-236,6019 -357,2648 -256,5618 -129,554 -700,2128
468,793 206,6796 -583,9655 -336,8451 260,6488
-503,4815 -338,9031 -436,4966 359,091 555,7603
-207,6549 -376,7824 703,0414 -372,3111 147,4047
552,8449 -177,6289 -222,6378 469,3816 610,4093
-518,3517 693,4605 182,6919 239,0463 628,7351
-242,1276 253,2431 -619,6043 24,2253 689,3621
-537,0503 -618,8206 782,5093 434,9349 439,5722
-567,905 786,5494 43,108 266,6768 667,2743
689,8105 -496,7096 -762,55 -777,8906 477,5873
-582,2825 771,5109 -386,4962 9,8103 -77,8085
-509,6476 420,5735 191,944 637,1363 2,5314
746,7828 675,1336 538,3761 38,6148 103,958
399,6865 -223,956 -463,1141 -389,3064 -54,161
-607,8166 -626,0578 743,8602 443,6099 698,6891
341,5995 161,0315 -295,3364 710,5434 250,753
375,2379 -573,3562 592,9973 428,9777 4,3283
401,0466 -264,9573 -322,847 -602,29 551,8428
-211,2716 -722,1012 -290,0347 536,9049 -739,1998
265,9174 -296,5116 181,3897 58,3381 -489,7715
232,1639 573,8843 -159,4651 -687,9339 431,2712
55,4081 -743,8588 -211,4342 166,9616 -755,3152
-633,5724 -383,0752 204,5794 -478,0851 -615,6193
-109,561 -455,3633 -275,4161 492,405 215,6832
381,6594 -250,0535 304,0215 133,4008 -131,44
574,2459 635,7404 -223,6355 -524,2148 13,7065
153,7505 428,827 277,3909 -495,7565 -176,8371
240,5623 -204,7797 704,4161 -321,8435 -178,1218
676,2734 80,5516 696,3561 -156,1921 547,4529
586,2024 -264,3648 -784,66 122,9269 -6,1929
-598,4953 385,3627 0,545 -354,1705 477,4443
-126,1488 -182,1362 -749,033 683,9907 372,5423
-355,4057 581,2398 283,3384 64,5222 -135,6706
6,359 22,8355 756,7485 -385,8984 -100,7357
-574,5773 261,9197 7,596 786,2894 -427,9713
-516,493 -760,7492 -66,0475 -352,77 -138,0496
-359,6286 -220,4138 270,1378 -127,5724 -280,9973
367,0182 47,8803 186,4225 -45,9287 -613,0532
-757,4178 160,4462 470,4162 626,5756 612,2289
-463,4252 -764,3235 173,3619 -215,3704 700,3726
522,4993 228,4524 178,647 183,8605 -18,3725
-642,4888 -497,4934 -669,6699 159,069 188,9146
314,1248 240,1713 305,8349 641,1188 -708,642
151,0911 -5,3123 338,6605 -234,2374 -771,378
-347,2675 116,9356 -730,6608 444,2017 685,7822
644,9464 331,5185 -310,1292 -65,4439 -80,9237
-206,3714 -727,3215 416,5891 -442,6644 372,5001
-441,6086 -598,1551 -376,6212 715,3187 90,0721
-123,2006 77,1184 -602,6794 -133,2562 775,151
-277,642 699,3819 -677,1565 280,668 -168,4809
738,7907 -514,7408 560,2236 -261,8523 -530,3834
-693,8804 -572,0758 -287,4791 -700,6014 -122,0975
432,6043 -144,8466 769,6967 -646,1102 355,2352
-641,412 -602,4123 236,4263 80,5638 -637,1093
-754,0178 320,2099 208,0159 511,5816 630,042
-583,2288 52,276 225,9227 102,2952 -762,6283
122,6573 321,306 95,0555 342,3307 -662,2081
688,4785 273,9234 -298,0068 587,2768 -179,4505
-282,4197 229,6685 -433,8678 561,9389 711,7707
-76,6738 -166,8768 -237,9323 -84,0032 371,1019
-466,5451 8,002 328,5311 -328,3417 -448,9651
-87,1905 -229,2216 544,1684 683,6077 274,0261
-210,6599 707,9541 -598,0192 706,4018 600,1213
660,7062 -778,6288 501,7271 -498,4688 322,7135
-440,0935 474,2286 309,5206 -690,8663 536,4814
654,2641 -20,1057 -125,0646 -352,1905 530,2298
626,9338 -514,2531 492,1024 646,9528 79,1184
688,2255 1,3748 -69,1971 -135,2364 70,3414
-755,955 -124,9441 -356,6576 -262,3772 -349,1325
-728,1919 243,8872 250,5242 799,2989 669,2192
-483,5818 663,5776 244,907 -632,2583 -302,0672
-781,3883 416,7255 508,3472 523,4993 -56,3359
-437,1098 295,4217 -270,7783 -568,5103 73,6023
715,6299 135,4952 -183,8685 -316,7431 424,8381
-304,7993 -374,2995 -692,1235 288,0345 34,4291
698,2245 -247,6331 -144,6276 156,9713 337,7567
7,6318 -93,6813 98,2985 562,3502 170,0576
-212,7359 -706,1057 -281,5094 656,3816 761,0658
-354,6593 525,1939 481,1136 -295,3477 305,0468
-166,0013 417,8213 -504,374 294,9055 -547,6887
541,4432 274,8587 -81,0774 594,8528 240,837
-738,3515 473,3628 598,9195 85,4384 -724,393
-27,5624 -753,5299 74,3908 304,8303 545,891
-95,6843 314,9748 448,914 -692,7862 446,9319
-691,2364 -597,594 137,8983 -617,5655 -494,897
-71,8688 152,9093 -764,2769 -226,7692 -30,1912
-195,5672 20,1889 -410,6495 -740,8158 63,5166
235,0658 107,5953 -764,5134 -482,2538 -692,6075
-265,2514 -690,2297 93,1858 791,1145 -184,1012
-514,7938 -350,1056 732,8634 -587,9243 -605,6981
-665,9513 -299,0338 -535,1882 477,1321 -210,8617
-221,7123 -102,1394 167,5296 -558,4581 -345,2241
368,0913 87,7916 -234,901 597,2342 691,1327
798,4054 711,9038 -371,734 -389,5724 -600,016
295,2281 345,0205 728,3935 -210,016 570,7395
-507,0542 -12,8885 502,879 215,3398 -46,9172
-310,259 381,4284 316,0683 353,3105 -506,6727
687,4379 605,0668 739,5836 -140,8026 -136,1652
-656,448 -333,2806 -764,0995 -233,949 35,0818
477,7518 760,5757 746,4895 341,674 -468,0142
-389,3925 735,2933 -141,5739 -770,1099 200,6652
-355,6107 -523,2542 686,9279 165,4648 -399,9906
-440,9104 21,6346 -593,3789 -517,0291 716,2338
-761,0582 577,756 131,8804 -343,9074 396,7409
-512,5402 372,6441 -245,5883 619,921 647,2065
474,9195 641,0284 243,4129 -58,7845 -713,0573
781,7955 352,8874 549,8846 -163,414 -769,5829
733,175 405,1926 136,6778 781,45 -119,3439
286,9305 -266,6787 97,4651 -617,4536 255,7189
-36,3554 93,1302 202,2608 -415,4245 -364,2112
-385,1628 115,33 -539,7069 742,3678 65,0977
322,4457 -352,9766 204,0873 774,4875 678,1492
231,4713 134,1691 27,4929 -254,0233 358,4749
266,3266 595,1519 747,1944 -619,9335 143,515
152,2755 716,402 465,5513 -260,1641 487,9131
245,4498 428,0342 474,6113 398,0325 717,2015
-224,9497 -513,8128 370,2419 755,1487 -294,6952
-278,6047 -251,9636 -766,2089 -180,8957 -208,5455
707,6643 589,8346 -634,4415 -77,6073 337,4031
521,7365 -568,5656 -657,0225 -488,1477 582,8083
-706,2358 657,5631 -78,781 778,3218 751,7133
583,3633 -148,7754 -725,5333 87,6901 -98,271
-721,3265 691,5235 -296,9773 -558,2529 -440,575
296,7351 -420,5721 180,9008 -247,0865 361,0386
25,6697 -519,923 -309,4205 64,0898 -667,4472
-641,896 -665,1328 513,4594 -122,6874 -767,3919
195,8317 404,2255 -358,8193 -541,2775 -413,6197
792,0552 -742,7404 384,2417 758,2298 663,6139
248,0825 -94,8912 178,4375 722,2649 638,5026
-764,7737 647,9712 275,2648 -303,1231 -127,584
532,3036 -730,7232 -504,5412 -376,5474 735,2961
-521,8848 -502,9401 717,5401 -349,2358 -301,2552
601,9958 -216,3093 520,102 248,0038 -112,3157
769,7615 -581,3161 483,8641 -586,4542 -33,784
245,6287 -490,5988 -20,1356 66,0377 -306,1303
-251,5063 -504,9645 -729,1608 -33,5151 443,7966
-774,66 67,6865 295,4561 149,3392 382,4343
169,4715 34,1269 390,7366 332,1453 -464,359
-639,1177 677,2605 787,8053 730,7099 188,1797
-769,8186 -216,5201 -79,9821 -223,5643 689,6697
478,2074 477,5902 -617,7144 679,059 229,974
-209,3407 -701,0587 -743,2592 -499,357 104,5815
-694,5953 12,4337 597,3796 259,2174 -194,8032
478,1136 230,8383 410,8481 164,4683 268,2409
-70,2304 -362,7453 -780,4821 587,7314 -623,1357
-331,0721 -686,3232 462,5535 31,4919 -114,1699
474,1954 15,3348 -558,0326 -428,5176 168,7996
735,5902 -451,0373 -326,0101 250,592 -288,4488
619,4026 25,5311 632,9883 597,9078 798,8195
-587,673 -330,4874 -127,782 663,1478 -534,0082
55,4655 124,1165 474,8157 -471,9097 -542,0297
351,3969 -514,1705 -674,5829 312,1463 -696,4675
-403,1266 635,7079 -276,8689 631,3085 -262,0686
686,6823 435,2737 684,6517 -158,8692 102,4492
777,1334 113,9818 24,4388 -143,0826 -579,3659
-490,1943 657,8945 -116,3152 -235,9464 -186,3593
580,403 783,5801 -661,4523 -13,5822 360,0187
33,6276 -23,1896 665,1585 646,748 -4,8593
17,5743 -7,1132 47,4505 -202,1535 493,2023
772,086 -626,5627 -709,0736 699,8972 709,7615
-32,0787 466,2611 -492,1963 772,1849 677,8011
-143,1038 -297,1985 555,5051 -529,9445 642,5314
751,1902 -471,6451 485,6729 606,4689 534,4693
210,5088 368,4371 -409,4749 -532,7988 697,3325
55,8576 117,6712 -152,9815 -793,6836 -730,1077
-204,7023 183,2152 447,8984 -98,2293 -164,8659
-207,6431 369,7913 192,826 723,2645 739,29
-627,4449 33,9899 -206,3373 -725,6462 457,6532
105,1205 705,3776 130,6951 471,7925 556,826
-578,032 155,5499 -670,2347 -642,3284 -57,2873
135,7079 40,0621 335,5182 -650,845 -283,3491
687,227 395,9855 81,469 63,3396 -406,4641
395,4738 221,7062 -233,7786 -210,1809 -318,9805
-143,3312 -310,5294 -385,6624 -2,9984 -460,8031
-703,9072 -737,3599 246,6918 548,2916 137,7017
179,1168 -549,4113 -358,6054 -124,5425 -522,716
1,7413 415,6856 384,7172 -637,1437 -503,8079
-28,8029 -129,4721 645,566 365,2098 724,713
534,1661 -305,2946 -680,0759 -735,6853 113,6329
528,5332 344,5585 -670,3128 -609,2544 -791,5981
264,8511 731,7773 -12,8012 774,7925 -66,6528
-707,7536 -97,169 171,6974 -321,5682 -126,6912
-536,9694 717,4133 -361,839 -735,8713 473,4222
-690,1199 -138,7377 -134,9753 -6,1781 -504,1133
301,829 85,1583 198,3949 -157,3341 391,5869
760,2129 729,1098 39,2966 -640,9587 -40,3645
-281,465 -118,6729 -171,0898 -428,9205 427,3207
-529,2515 -584,1413 -45,4388 696,7393 557,8111
392,5815 -228,9371 353,5103 136,5202 104,6655
540,2865 305,4113 -28,9586 -764,8305 488,2273
-342,4987 -272,1535 -214,6707 417,3774 -207,1776
-550,6108 314,6826 -125,0053 -418,1819 -627,9693
-303,202 689,4939 17,8164 577,5552 787,6871
-609,734 769,0981 -606,1661 -25,4767 -525,5803
-436,9534 765,428 232,9913 619,1905 -84,094
-211,3971 614,8133 -450,5765 191,5239 5,5884
334,3644 628,8677 312,9257 381,2507 45,4405
-119,444 453,6968 -597,5513 -289,6736 672,0381
152,6945 -404,3974 -708,6759 -580,4283 181,5848
-67,4182 506,7362 -572,5204 -247,9176 137,5597
-558,5979 644,5602 300,0175 -786,2719 -738,6405
338,4523 -689,6284 -692,5952 -84,1348 790,6101
-586,4399 607,5518 542,6433 320,7845 -307,544
-396,3136 361,5106 54,1929 276,5725 58,8654
